Voltage (V)	dt is 0.010000 seconds	distance is 0.000000 cm
4.948864E+0
4.934223E+0
4.941955E+0
4.940639E+0
4.940310E+0
4.940968E+0
4.941297E+0
4.938665E+0
4.949358E+0
4.934552E+0
4.941626E+0
4.940475E+0
4.940146E+0
4.941626E+0
4.941133E+0
4.940804E+0
4.942778E+0
4.948864E+0
4.934552E+0
4.944587E+0
4.941626E+0
4.941297E+0
4.941955E+0
4.940639E+0
4.941462E+0
4.934059E+0
4.952155E+0
4.937349E+0
4.940804E+0
4.944423E+0
4.940639E+0
4.943107E+0
4.941297E+0
4.942449E+0
4.939488E+0
4.950674E+0
4.933565E+0
4.942778E+0
4.940968E+0
4.939817E+0
4.941791E+0
4.940146E+0
4.935375E+0
4.951003E+0
4.939159E+0
4.913002E+0
4.913496E+0
4.910206E+0
4.912838E+0
4.910370E+0
4.906258E+0
4.918760E+0
4.912838E+0
4.904942E+0
4.913660E+0
4.910041E+0
4.909877E+0
4.911522E+0
4.904284E+0
4.922215E+0
4.907903E+0
4.911028E+0
4.914483E+0
4.911193E+0
4.912838E+0
4.912180E+0
4.907409E+0
4.922050E+0
4.902968E+0
4.911522E+0
4.912180E+0
4.909383E+0
4.939817E+0
4.940639E+0
4.935540E+0
4.951167E+0
4.941297E+0
4.937185E+0
4.944423E+0
4.939159E+0
4.942284E+0
4.940146E+0
4.941297E+0
4.941297E+0
4.934388E+0
4.951990E+0
4.937843E+0
4.940146E+0
4.944752E+0
4.941462E+0
4.942942E+0
4.941791E+0
4.942942E+0
4.940804E+0
4.937349E+0
4.951826E+0
4.932743E+0
4.941791E+0
4.941791E+0
4.938336E+0
4.943107E+0
4.941133E+0
4.934717E+0
4.954129E+0
4.932249E+0
4.941462E+0
4.942449E+0
4.939817E+0
4.940146E+0
4.943271E+0
4.948206E+0
4.935540E+0
4.945245E+0
4.941462E+0
4.942613E+0
4.938007E+0
4.952648E+0
4.933894E+0
4.941297E+0
4.941626E+0
4.939817E+0
4.934552E+0
4.952484E+0
4.937843E+0
4.940146E+0
4.945245E+0
4.940475E+0
4.941955E+0
4.942942E+0
4.948535E+0
4.934717E+0
4.945903E+0
4.942120E+0
4.941297E+0
4.936691E+0
4.948535E+0
4.942942E+0
4.934388E+0
4.945081E+0
4.938336E+0
4.941791E+0
4.935211E+0
4.951497E+0
4.939652E+0
4.939488E+0
4.945245E+0
4.939323E+0
4.943107E+0
4.934717E+0
4.951332E+0
4.938665E+0
4.940639E+0
4.944587E+0
4.940310E+0
4.943436E+0
4.935540E+0
4.952155E+0
4.933730E+0
4.941462E+0
4.941133E+0
4.939652E+0
4.942942E+0
4.933236E+0
4.953800E+0
4.937020E+0
4.940475E+0
4.945903E+0
4.939159E+0
4.943436E+0
4.941133E+0
4.942778E+0
4.948864E+0
4.934882E+0
4.946397E+0
4.940639E+0
4.942120E+0
4.943107E+0
4.935540E+0
4.949851E+0
4.942778E+0
4.935046E+0
4.944752E+0
4.938336E+0
4.942778E+0
4.940639E+0
4.938501E+0
4.952319E+0
4.932907E+0
4.942449E+0
4.940310E+0
4.941133E+0
4.940804E+0
4.934388E+0
4.952648E+0
4.939488E+0
4.938830E+0
4.945081E+0
4.940804E+0
4.941955E+0
4.941133E+0
4.943271E+0
4.948864E+0
4.934717E+0
4.945410E+0
4.942120E+0
4.940639E+0
4.943107E+0
4.933894E+0
4.951826E+0
4.935704E+0
4.940146E+0
4.943929E+0
4.940310E+0
4.942613E+0
4.935375E+0
4.951167E+0
4.941133E+0
4.937349E+0
4.945903E+0
4.939159E+0
4.941626E+0
4.941955E+0
4.935211E+0
4.951167E+0
4.939488E+0
4.940804E+0
4.943929E+0
4.940639E+0
4.944587E+0
4.940146E+0
4.938007E+0
4.946561E+0
4.944587E+0
4.934388E+0
4.945410E+0
4.940475E+0
4.942284E+0
4.942120E+0
4.941297E+0
4.937843E+0
4.952813E+0
4.932414E+0
4.941955E+0
4.942942E+0
4.938830E+0
4.941955E+0
4.941626E+0
4.934223E+0
4.952648E+0
4.939652E+0
4.939159E+0
4.945245E+0
4.940639E+0
4.943929E+0
4.941297E+0
4.934552E+0
4.952813E+0
4.939817E+0
4.939323E+0
4.946068E+0
4.939323E+0
4.943271E+0
4.941791E+0
4.933236E+0
4.954458E+0
4.933730E+0
4.940804E+0
4.944423E+0
4.939488E+0
4.943271E+0
4.941791E+0
4.939159E+0
4.951332E+0
4.933730E+0
4.943929E+0
4.940968E+0
4.939488E+0
4.942613E+0
4.936033E+0
4.947219E+0
4.946561E+0
4.933894E+0
4.944916E+0
4.939981E+0
4.943107E+0
4.935540E+0
4.950509E+0
4.942120E+0
4.936033E+0
4.944587E+0
4.939981E+0
4.941791E+0
4.932743E+0
4.954293E+0
4.934882E+0
4.940310E+0
4.943929E+0
4.941133E+0
4.944587E+0
4.934388E+0
4.951661E+0
4.913002E+0
4.907409E+0
4.916621E+0
4.909383E+0
4.912180E+0
4.912344E+0
4.905600E+0
4.920076E+0
4.912838E+0
4.905929E+0
4.914976E+0
4.909548E+0
4.912180E+0
4.911193E+0
4.911357E+0
4.913167E+0
4.918760E+0
4.905106E+0
4.916950E+0
4.912015E+0
4.912673E+0
4.913002E+0
4.912344E+0
4.905764E+0
4.923860E+0
4.903955E+0
4.910864E+0
4.940475E+0
4.939323E+0
4.942942E+0
4.939981E+0
4.935375E+0
4.952648E+0
4.937349E+0
4.941133E+0
4.944423E+0
4.940804E+0
4.942778E+0
4.941791E+0
4.940310E+0
4.950674E+0
4.933730E+0
4.943765E+0
4.940804E+0
4.941133E+0
4.942120E+0
4.934223E+0
4.951167E+0
4.939652E+0
4.938007E+0
4.944587E+0
4.938172E+0
4.942284E+0
4.941626E+0
4.934552E+0
4.948206E+0
4.943600E+0
4.933401E+0
4.943929E+0
4.939159E+0
4.941626E+0
4.939817E+0
4.941626E+0
4.936527E+0
4.948535E+0
4.942120E+0
4.935375E+0
4.943929E+0
4.937843E+0
4.942120E+0
4.939981E+0
4.939652E+0
4.941791E+0
4.940804E+0
4.948700E+0
4.933565E+0
4.945574E+0
4.941133E+0
4.940968E+0
4.942778E+0
4.939981E+0
4.936362E+0
4.947384E+0
4.942613E+0
4.935046E+0
4.942449E+0
4.938336E+0
4.941133E+0
4.940804E+0
4.934552E+0
4.951497E+0
4.934223E+0
4.941133E+0
4.941297E+0
4.941133E+0
4.941133E+0
4.933565E+0
4.952484E+0
4.937349E+0
4.939159E+0
4.944258E+0
4.939488E+0
4.941955E+0
4.934717E+0
4.948864E+0
4.942778E+0
4.933565E+0
4.944094E+0
4.937843E+0
4.942284E+0
4.936362E+0
4.945410E+0
4.945245E+0
4.932414E+0
4.945574E+0
4.939323E+0
4.941133E+0
4.941955E+0
4.936691E+0
4.951990E+0
4.931756E+0
4.941297E+0
4.941462E+0
4.938665E+0
4.940968E+0
4.941297E+0
4.936033E+0
4.950838E+0
4.932907E+0
4.941791E+0
4.940310E+0
4.940310E+0
4.941297E+0
4.940639E+0
4.935211E+0
4.950838E+0
4.939652E+0
4.938172E+0
4.944752E+0
4.939652E+0
4.941133E+0
4.941955E+0
4.937185E+0
4.944423E+0
4.945739E+0
4.933401E+0
4.945574E+0
4.939488E+0
4.942284E+0
4.941297E+0
4.941626E+0
4.939817E+0
4.949687E+0
4.933894E+0
4.944258E+0
4.941462E+0
4.939323E+0
4.942449E+0
4.937349E+0
4.943765E+0
4.947548E+0
4.932249E+0
4.946726E+0
4.939817E+0
4.942613E+0
4.941297E+0
4.936691E+0
4.952648E+0
4.932085E+0
4.941297E+0
4.942120E+0
4.938336E+0
4.941297E+0
4.936198E+0
4.948042E+0
4.942284E+0
4.935540E+0
4.943107E+0
4.938994E+0
4.941791E+0
4.940475E+0
4.935704E+0
4.951332E+0
4.933401E+0
4.940475E+0
4.942120E+0
4.939323E+0
4.941791E+0
4.934223E+0
4.950674E+0
4.938007E+0
4.940310E+0
4.944258E+0
4.939652E+0
4.943436E+0
4.935869E+0
4.951990E+0
4.933072E+0
4.940475E+0
4.941626E+0
4.939652E+0
4.942449E+0
4.939488E+0
4.949851E+0
4.934552E+0
4.943929E+0
4.941297E+0
4.940475E+0
4.940804E+0
4.938336E+0
4.944094E+0
4.945739E+0
4.934059E+0
4.944587E+0
4.940639E+0
4.941297E+0
4.941462E+0
4.941626E+0
4.932578E+0
4.952484E+0
4.935869E+0
4.939488E+0
4.944752E+0
4.939488E+0
4.942449E+0
4.941297E+0
4.941626E+0
4.935046E+0
4.952155E+0
4.933236E+0
4.939817E+0
4.941791E+0
4.939323E+0
4.940639E+0
4.940639E+0
4.940804E+0
4.940804E+0
4.948700E+0
4.933401E+0
4.944587E+0
4.941462E+0
4.941955E+0
4.940475E+0
4.941133E+0
4.935704E+0
4.947384E+0
4.943107E+0
4.933894E+0
4.943436E+0
4.937349E+0
4.941133E+0
4.939817E+0
4.933565E+0
4.950838E+0
4.939159E+0
4.934552E+0
4.915141E+0
4.906916E+0
4.911686E+0
4.908232E+0
4.909877E+0
4.919418E+0
4.902803E+0
4.913825E+0
4.910699E+0
4.910206E+0
4.911193E+0
4.908890E+0
4.913002E+0
4.916292E+0
4.903626E+0
4.915634E+0
4.910041E+0
4.911193E+0
4.911686E+0
4.908725E+0
4.913331E+0
4.917444E+0
4.904119E+0
4.914976E+0
4.912673E+0
4.940804E+0
4.941297E+0
4.935704E+0
4.952155E+0
4.931920E+0
4.939817E+0
4.940968E+0
4.938172E+0
4.940968E+0
4.939159E+0
4.949522E+0
4.933894E+0
4.943271E+0
4.939488E+0
4.939817E+0
4.941462E+0
4.933401E+0
4.950509E+0
4.938501E+0
4.938172E+0
4.944752E+0
4.939488E+0
4.942284E+0
4.934059E+0
4.947384E+0
4.943271E+0
4.933236E+0
4.943765E+0
4.938501E+0
4.940804E+0
4.940146E+0
4.936856E+0
4.951990E+0
4.932249E+0
4.941297E+0
4.940146E+0
4.938830E+0
4.941133E+0
4.939817E+0
4.938830E+0
4.950180E+0
4.932743E+0
4.941791E+0
4.939159E+0
4.940146E+0
4.940146E+0
4.939981E+0
4.933894E+0
4.951661E+0
4.938007E+0
4.938501E+0
4.944752E+0
4.939981E+0
4.941462E+0
4.940639E+0
4.935375E+0
4.947713E+0
4.942778E+0
4.932578E+0
4.943765E+0
4.938172E+0
4.940310E+0
4.940804E+0
4.935704E+0
4.948206E+0
4.941955E+0
4.933565E+0
4.944423E+0
4.937678E+0
4.940639E+0
4.934552E+0
4.950016E+0
4.939323E+0
4.937185E+0
4.943271E+0
4.938501E+0
4.935704E+0
4.948371E+0
4.940804E+0
4.934717E+0
4.943600E+0
4.937843E+0
4.936362E+0
4.947384E+0
4.942449E+0
4.934059E+0
4.943765E+0
4.937349E+0
4.941462E+0
4.939323E+0
4.949358E+0
4.933236E+0
4.942120E+0
4.940310E+0
4.939323E+0
4.936362E+0
4.946068E+0
4.943765E+0
4.932743E+0
4.943765E+0
4.938830E+0
4.941133E+0
4.937020E+0
4.950180E+0
4.931920E+0
4.941133E+0
4.940310E+0
4.938830E+0
4.933894E+0
4.950838E+0
4.937514E+0
4.938501E+0
4.944423E+0
4.938665E+0
4.935046E+0
4.949851E+0
4.940310E+0
4.934882E+0
4.944094E+0
4.937843E+0
4.934388E+0
4.950016E+0
4.938994E+0
4.935869E+0
4.943271E+0
4.938172E+0
4.934717E+0
4.949029E+0
4.939488E+0
4.936033E+0
4.943271E+0
4.937678E+0
4.935046E+0
4.949358E+0
4.939159E+0
4.936362E+0
4.942942E+0
4.937843E+0
4.935375E+0
4.947384E+0
4.941791E+0
4.933565E+0
4.942284E+0
4.938336E+0
4.934552E+0
4.945081E+0
4.944258E+0
4.932414E+0
4.943929E+0
4.938665E+0
4.939159E+0
4.940804E+0
4.946890E+0
4.934059E+0
4.942778E+0
4.940639E+0
4.939981E+0
4.939817E+0
4.948042E+0
4.931920E+0
4.943107E+0
4.938830E+0
4.939323E+0
4.936527E+0
4.950509E+0
4.931591E+0
4.939981E+0
4.940475E+0
4.938007E+0
4.933072E+0
4.951003E+0
4.933565E+0
4.939652E+0
4.941462E+0
4.939159E+0
4.933565E+0
4.949851E+0
4.936691E+0
4.939159E+0
4.942613E+0
4.938830E+0
4.934388E+0
4.949029E+0
4.938830E+0
4.935211E+0
4.943929E+0
4.936198E+0
4.935375E+0
4.948700E+0
4.938501E+0
4.934223E+0
4.942613E+0
4.937349E+0
4.936033E+0
4.944916E+0
4.942449E+0
4.931262E+0
4.944094E+0
4.938007E+0
4.939652E+0
4.941297E+0
4.946397E+0
4.933565E+0
4.944094E+0
4.938665E+0
4.940475E+0
4.939981E+0
4.947384E+0
4.932743E+0
4.941791E+0
4.939981E+0
4.938665E+0
4.938665E+0
4.950016E+0
4.930275E+0
4.942613E+0
4.939817E+0
4.936691E+0
4.938665E+0
4.948535E+0
4.931591E+0
4.940310E+0
4.938830E+0
4.938336E+0
4.932907E+0
4.949851E+0
4.933730E+0
4.937843E+0
4.941791E+0
4.939817E+0
4.922215E+0
4.921721E+0
4.905929E+0
4.908067E+0
4.913331E+0
4.906751E+0
4.905929E+0
4.917773E+0
4.909548E+0
4.904613E+0
4.913331E+0
4.907409E+0
4.903955E+0
4.917608E+0
4.911851E+0
4.901981E+0
4.915141E+0
4.906916E+0
4.910864E+0
4.909548E+0
4.917938E+0
4.903461E+0
4.912509E+0
4.910041E+0
4.909712E+0
4.915634E+0
4.949522E+0
4.931427E+0
4.938665E+0
4.940146E+0
4.936527E+0
4.942449E+0
4.945410E+0
4.931591E+0
4.945245E+0
4.938336E+0
4.934059E+0
4.949851E+0
4.938007E+0
4.936362E+0
4.941626E+0
4.938501E+0
4.937843E+0
4.949358E+0
4.931262E+0
4.941133E+0
4.939652E+0
4.933072E+0
4.947713E+0
4.941955E+0
4.931591E+0
4.944258E+0
4.936856E+0
4.935375E+0
4.946232E+0
4.941297E+0
4.932743E+0
4.941462E+0
4.937843E+0
4.940146E+0
4.939323E+0
4.934552E+0
4.951332E+0
4.930769E+0
4.939323E+0
4.939817E+0
4.936856E+0
4.940804E+0
4.939159E+0
4.933894E+0
4.949687E+0
4.938172E+0
4.936198E+0
4.944094E+0
4.936527E+0
4.940639E+0
4.939652E+0
4.933565E+0
4.948206E+0
4.939488E+0
4.936527E+0
4.941626E+0
4.937678E+0
4.940146E+0
4.939488E+0
4.936527E+0
4.950180E+0
4.931098E+0
4.940639E+0
4.939981E+0
4.938007E+0
4.939652E+0
4.931591E+0
4.950838E+0
4.936691E+0
4.937514E+0
4.943929E+0
4.938172E+0
4.940639E+0
4.939981E+0
4.939323E+0
4.947219E+0
4.932249E+0
4.943436E+0
4.939981E+0
4.938665E+0
4.940146E+0
4.932907E+0
4.949193E+0
4.938172E+0
4.935540E+0
4.942284E+0
4.937020E+0
4.940310E+0
4.938501E+0
4.938172E+0
4.948535E+0
4.932085E+0
4.942778E+0
4.938172E+0
4.938994E+0
4.940310E+0
4.932907E+0
4.947055E+0
4.940310E+0
4.932907E+0
4.942120E+0
4.936033E+0
4.939981E+0
4.938172E+0
4.931262E+0
4.950838E+0
4.933072E+0
4.938501E+0
4.940968E+0
4.938665E+0
4.940310E+0
4.936362E+0
4.942284E+0
4.945081E+0
4.931756E+0
4.943765E+0
4.938501E+0
4.939817E+0
4.939981E+0
4.932249E+0
4.949522E+0
4.937514E+0
4.935375E+0
4.943107E+0
4.935704E+0
4.939981E+0
4.939323E+0
4.933236E+0
4.951003E+0
4.928795E+0
4.940146E+0
4.938501E+0
4.937020E+0
4.939817E+0
4.933236E+0
4.944916E+0
4.941791E+0
4.931591E+0
4.940804E+0
4.937514E+0
4.939159E+0
4.938994E+0
4.933236E+0
4.946397E+0
4.940804E+0
4.931920E+0
4.941626E+0
4.936362E+0
4.938665E+0
4.938665E+0
4.937843E+0
4.938501E+0
4.947219E+0
4.931756E+0
4.941955E+0
4.938501E+0
4.937843E+0
4.939323E+0
4.936362E+0
4.941297E+0
4.944423E+0
4.932414E+0
4.942778E+0
4.939323E+0
4.939323E+0
4.940804E+0
4.934059E+0
4.949687E+0
4.931920E+0
4.938336E+0
4.939323E+0
4.937349E+0
4.938994E+0
4.930440E+0
4.950345E+0
4.935211E+0
4.937678E+0
4.942778E+0
4.938007E+0
4.940475E+0
4.934552E+0
4.944423E+0
4.942613E+0
4.931262E+0
4.941791E+0
4.937349E+0
4.938994E+0
4.939652E+0
4.930933E+0
4.950345E+0
4.931920E+0
4.937843E+0
4.941133E+0
4.937514E+0
4.939159E+0
4.937678E+0
4.940639E+0
4.945574E+0
4.931427E+0
4.943929E+0
4.938501E+0
4.939159E+0
4.940475E+0
4.931591E+0
4.950674E+0
4.930769E+0
4.938336E+0
4.939488E+0
4.936856E+0
4.940146E+0
4.932743E+0
4.946397E+0
4.941133E+0
4.931591E+0
4.941626E+0
4.936691E+0
4.938501E+0
4.938665E+0
4.932743E+0
4.949687E+0
4.930769E+0
4.938665E+0
4.939159E+0
4.937349E+0
4.939981E+0
4.932743E+0
4.945574E+0
4.942120E+0
4.931427E+0
4.941133E+0
4.920076E+0
4.909383E+0
4.908067E+0
4.907409E+0
4.918431E+0
4.900500E+0
4.912344E+0
4.908725E+0
4.907409E+0
4.909712E+0
4.901323E+0
4.920076E+0
4.906587E+0
4.906916E+0
4.913002E+0
4.907738E+0
4.910206E+0
4.907574E+0
4.911028E+0
4.916128E+0
4.901158E+0
4.914318E+0
4.908561E+0
4.909219E+0
4.910041E+0
4.922544E+0
4.949193E+0
4.929453E+0
4.939652E+0
4.938007E+0
4.937020E+0
4.939817E+0
4.934388E+0
4.949522E+0
4.929782E+0
4.939488E+0
4.938336E+0
4.937514E+0
4.938830E+0
4.938501E+0
4.947713E+0
4.931427E+0
4.942778E+0
4.938994E+0
4.938994E+0
4.939817E+0
4.930111E+0
4.951167E+0
4.933730E+0
4.937843E+0
4.942449E+0
4.936527E+0
4.941462E+0
4.930111E+0
4.949687E+0
4.936198E+0
4.937185E+0
4.942778E+0
4.936691E+0
4.940968E+0
4.936856E+0
4.948371E+0
4.930933E+0
4.940310E+0
4.938830E+0
4.937349E+0
4.931262E+0
4.950509E+0
4.932085E+0
4.938336E+0
4.941462E+0
4.938172E+0
4.932743E+0
4.948206E+0
4.938172E+0
4.934882E+0
4.942778E+0
4.937349E+0
4.934717E+0
4.942778E+0
4.943765E+0
4.931262E+0
4.942120E+0
4.938172E+0
4.939817E+0
4.938665E+0
4.930604E+0
4.950674E+0
4.931756E+0
4.937843E+0
4.941462E+0
4.936856E+0
4.940146E+0
4.939323E+0
4.938665E+0
4.937678E+0
4.948864E+0
4.930933E+0
4.941791E+0
4.939159E+0
4.937185E+0
4.939323E+0
4.938172E+0
4.938501E+0
4.937514E+0
4.948700E+0
4.930440E+0
4.942120E+0
4.939323E+0
4.937843E+0
4.939323E+0
4.938172E+0
4.939323E+0
4.930275E+0
4.950180E+0
4.935540E+0
4.937020E+0
4.942778E+0
4.937678E+0
4.940639E+0
4.938172E+0
4.940310E+0
4.938172E+0
4.936198E+0
4.949358E+0
4.929617E+0
4.941955E+0
4.937843E+0
4.937678E+0
4.939159E+0
4.937514E+0
4.938501E+0
4.934223E+0
4.944094E+0
4.942120E+0
4.930604E+0
4.942778E+0
4.935704E+0
4.939159E+0
4.938830E+0
4.938830E+0
4.938830E+0
4.931262E+0
4.949687E+0
4.935046E+0
4.937185E+0
4.942942E+0
4.937185E+0
4.940310E+0
4.939323E+0
4.938665E+0
4.938665E+0
4.936033E+0
4.949358E+0
4.930440E+0
4.939817E+0
4.938830E+0
4.937843E+0
4.938172E+0
4.937514E+0
4.938994E+0
4.931427E+0
4.949687E+0
4.936527E+0
4.936033E+0
4.943271E+0
4.936691E+0
4.940639E+0
4.938501E+0
4.937678E+0
4.936033E+0
4.942613E+0
4.942942E+0
4.930275E+0
4.942613E+0
4.936856E+0
4.939159E+0
4.938994E+0
4.938501E+0
4.939323E+0
4.937843E+0
4.947384E+0
4.931262E+0
4.943271E+0
4.938665E+0
4.938665E+0
4.939488E+0
4.938336E+0
4.939159E+0
4.936362E+0
4.948206E+0
4.930769E+0
4.941297E+0
4.938172E+0
4.937020E+0
4.939817E+0
4.937020E+0
4.938665E+0
4.934717E+0
4.949358E+0
4.930275E+0
4.939159E+0
4.938830E+0
4.936527E+0
4.938994E+0
4.938007E+0
4.938830E+0
4.930604E+0
4.950509E+0
4.932249E+0
4.937349E+0
4.941133E+0
4.937185E+0
4.940804E+0
4.938172E+0
4.939652E+0
4.933401E+0
4.945903E+0
4.940639E+0
4.932085E+0
4.942613E+0
4.935375E+0
4.939323E+0
4.938336E+0
4.937514E+0
4.932249E+0
4.949358E+0
4.936198E+0
4.936362E+0
4.943765E+0
4.936527E+0
4.939981E+0
4.938501E+0
4.936198E+0
4.949358E+0
4.929946E+0
4.940310E+0
4.938501E+0
4.936527E+0
4.939981E+0
4.929453E+0
4.951003E+0
4.931920E+0
4.937678E+0
4.942120E+0
4.937185E+0
4.939981E+0
4.938665E+0
4.931756E+0
4.949029E+0
4.936198E+0
4.936856E+0
4.941791E+0
4.937349E+0
4.939981E+0
4.938007E+0
4.916950E+0
4.902474E+0
4.916457E+0
4.908396E+0
4.902474E+0
4.911193E+0
4.905271E+0
4.909054E+0
4.907409E+0
4.907574E+0
4.907738E+0
4.904942E+0
4.918925E+0
4.899513E+0
4.909219E+0
4.908067E+0
4.905929E+0
4.908561E+0
4.907409E+0
4.908396E+0
4.903132E+0
4.914647E+0
4.910535E+0
4.901487E+0
4.911028E+0
4.925998E+0
4.938501E+0
4.937020E+0
4.936856E+0
4.938830E+0
4.932743E+0
4.948700E+0
4.929124E+0
4.939159E+0
4.937185E+0
4.935540E+0
4.939652E+0
4.935211E+0
4.938501E+0
4.930275E+0
4.948206E+0
4.933401E+0
4.936856E+0
4.941791E+0
4.935869E+0
4.940146E+0
4.938172E+0
4.933236E+0
4.943600E+0
4.940639E+0
4.930604E+0
4.940804E+0
4.935375E+0
4.938830E+0
4.937185E+0
4.938007E+0
4.932249E+0
4.945739E+0
4.938830E+0
4.932249E+0
4.941133E+0
4.935211E+0
4.936691E+0
4.937349E+0
4.937349E+0
4.937185E+0
4.934388E+0
4.947877E+0
4.930440E+0
4.938665E+0
4.938336E+0
4.936033E+0
4.938007E+0
4.937185E+0
4.937349E+0
4.932414E+0
4.945245E+0
4.938007E+0
4.934388E+0
4.941955E+0
4.935046E+0
4.939817E+0
4.937349E+0
4.936856E+0
4.938501E+0
4.935375E+0
4.946397E+0
4.930769E+0
4.941626E+0
4.938501E+0
4.937843E+0
4.939323E+0
4.937514E+0
4.938501E+0
4.931427E+0
4.946561E+0
4.934882E+0
4.934223E+0
4.941462E+0
4.936198E+0
4.938994E+0
4.937678E+0
4.938830E+0
4.937678E+0
4.937349E+0
4.945739E+0
4.928137E+0
4.941462E+0
4.936198E+0
4.937185E+0
4.939652E+0
4.936033E+0
4.939981E+0
4.930604E+0
4.947055E+0
4.932743E+0
4.934717E+0
4.939817E+0
4.934059E+0
4.940146E+0
4.936198E+0
4.937678E+0
4.938501E+0
4.937678E+0
4.944752E+0
4.929124E+0
4.941133E+0
4.935375E+0
4.937185E+0
4.938007E+0
4.936527E+0
4.938336E+0
4.930111E+0
4.948371E+0
4.932249E+0
4.936198E+0
4.939488E+0
4.935540E+0
4.937678E+0
4.937020E+0
4.937349E+0
4.938336E+0
4.939159E+0
4.943271E+0
4.931427E+0
4.941297E+0
4.935375E+0
4.938501E+0
4.937185E+0
4.937185E+0
4.938830E+0
4.930111E+0
4.948042E+0
4.931920E+0
4.940968E+0
4.939817E+0
4.936691E+0
4.939488E+0
4.937185E+0
4.938665E+0
4.932085E+0
4.945903E+0
4.934388E+0
4.933565E+0
4.940639E+0
4.936033E+0
4.938172E+0
4.937349E+0
4.939159E+0
4.937020E+0
4.940475E+0
4.943929E+0
4.931427E+0
4.943765E+0
4.935211E+0
4.940310E+0
4.937843E+0
4.937185E+0
4.938994E+0
4.935211E+0
4.947713E+0
4.928466E+0
4.940804E+0
4.937349E+0
4.937349E+0
4.938830E+0
4.938007E+0
4.938172E+0
4.931591E+0
4.947055E+0
4.933565E+0
4.939159E+0
4.940475E+0
4.937185E+0
4.938994E+0
4.937678E+0
4.937514E+0
4.935211E+0
4.942942E+0
4.935540E+0
4.934388E+0
4.940310E+0
4.936198E+0
4.939159E+0
4.937843E+0
4.938007E+0
4.939323E+0
4.937514E+0
4.944587E+0
4.932085E+0
4.942284E+0
4.935869E+0
4.938172E+0
4.938007E+0
4.937349E+0
4.937678E+0
4.931920E+0
4.947384E+0
4.930769E+0
4.940475E+0
4.938830E+0
4.937678E+0
4.939159E+0
4.938172E+0
4.939323E+0
4.932743E+0
4.944752E+0
4.935540E+0
4.934717E+0
4.940146E+0
4.935540E+0
4.938336E+0
4.936691E+0
4.937678E+0
4.937843E+0
4.939652E+0
4.942120E+0
4.933565E+0
4.942613E+0
4.936691E+0
4.939159E+0
4.939159E+0
4.938172E+0
4.938007E+0
4.935046E+0
4.947384E+0
4.929617E+0
4.939981E+0
4.937678E+0
4.937185E+0
4.938501E+0
4.938007E+0
4.938830E+0
4.931591E+0
4.946726E+0
4.934388E+0
4.911686E+0
4.909219E+0
4.905435E+0
4.908067E+0
4.906258E+0
4.907574E+0
4.906751E+0
4.911028E+0
4.910370E+0
4.903461E+0
4.912673E+0
4.907080E+0
4.909219E+0
4.908890E+0
4.908561E+0
4.908396E+0
4.906258E+0
4.916786E+0
4.899019E+0
4.910699E+0
4.907409E+0
4.907080E+0
4.908725E+0
4.908067E+0
4.908725E+0
4.925505E+0
4.947384E+0
4.932907E+0
4.938007E+0
4.939323E+0
4.936198E+0
4.939488E+0
4.936033E+0
4.938172E+0
4.934388E+0
4.943107E+0
4.939981E+0
4.933401E+0
4.942942E+0
4.936691E+0
4.939488E+0
4.938665E+0
4.937843E+0
4.939159E+0
4.937020E+0
4.946068E+0
4.928959E+0
4.941133E+0
4.936691E+0
4.937185E+0
4.938501E+0
4.937843E+0
4.938007E+0
4.931591E+0
4.947713E+0
4.932907E+0
4.939817E+0
4.939323E+0
4.937349E+0
4.939488E+0
4.936033E+0
4.939323E+0
4.933072E+0
4.944094E+0
4.937020E+0
4.933894E+0
4.941791E+0
4.935869E+0
4.939817E+0
4.938501E+0
4.938336E+0
4.939323E+0
4.938665E+0
4.945245E+0
4.929124E+0
4.941133E+0
4.936362E+0
4.937185E+0
4.937843E+0
4.936691E+0
4.938665E+0
4.932578E+0
4.948535E+0
4.931920E+0
4.939488E+0
4.939323E+0
4.936362E+0
4.938501E+0
4.937678E+0
4.937843E+0
4.931756E+0
4.947055E+0
4.936856E+0
4.935540E+0
4.942613E+0
4.936856E+0
4.939981E+0
4.938007E+0
4.938336E+0
4.938336E+0
4.940475E+0
4.943600E+0
4.930604E+0
4.943271E+0
4.936362E+0
4.940146E+0
4.938665E+0
4.937678E+0
4.939159E+0
4.936362E+0
4.947877E+0
4.929946E+0
4.941297E+0
4.938007E+0
4.937185E+0
4.938501E+0
4.937185E+0
4.938830E+0
4.933236E+0
4.948535E+0
4.930275E+0
4.937678E+0
4.938830E+0
4.936033E+0
4.938007E+0
4.937349E+0
4.937678E+0
4.932414E+0
4.947384E+0
4.936856E+0
4.935211E+0
4.941955E+0
4.936033E+0
4.939652E+0
4.938501E+0
4.938007E+0
4.936527E+0
4.940804E+0
4.944094E+0
4.928795E+0
4.941297E+0
4.937349E+0
4.938007E+0
4.939159E+0
4.937843E+0
4.938501E+0
4.934552E+0
4.947877E+0
4.931427E+0
4.941133E+0
4.938007E+0
4.937678E+0
4.938501E+0
4.936856E+0
4.938172E+0
4.930604E+0
4.948042E+0
4.931262E+0
4.938830E+0
4.938830E+0
4.935046E+0
4.939323E+0
4.936527E+0
4.938336E+0
4.931427E+0
4.947713E+0
4.932578E+0
4.935211E+0
4.939652E+0
4.935375E+0
4.938665E+0
4.937514E+0
4.937678E+0
4.933565E+0
4.945081E+0
4.934223E+0
4.936198E+0
4.939488E+0
4.936527E+0
4.940310E+0
4.937349E+0
4.939159E+0
4.934059E+0
4.943107E+0
4.939488E+0
4.933565E+0
4.942778E+0
4.936691E+0
4.939323E+0
4.938007E+0
4.938665E+0
4.937678E+0
4.940310E+0
4.943107E+0
4.932085E+0
4.942613E+0
4.936362E+0
4.938172E+0
4.937843E+0
4.938007E+0
4.937678E+0
4.938007E+0
4.945081E+0
4.929617E+0
4.941626E+0
4.935704E+0
4.937678E+0
4.938007E+0
4.936362E+0
4.937843E+0
4.936362E+0
4.944258E+0
4.930769E+0
4.938007E+0
4.937843E+0
4.936362E+0
4.938172E+0
4.937843E+0
4.938336E+0
4.933401E+0
4.947548E+0
4.930275E+0
4.939981E+0
4.938665E+0
4.936691E+0
4.940475E+0
4.936691E+0
4.939323E+0
4.931262E+0
4.946068E+0
4.934223E+0
4.939817E+0
4.939981E+0
4.937678E+0
4.938994E+0
4.937678E+0
4.939817E+0
4.930933E+0
4.946232E+0
4.934552E+0
4.936691E+0
4.940146E+0
4.935046E+0
4.938994E+0
4.936527E+0
4.937185E+0
4.935704E+0
4.941462E+0
4.936198E+0
4.935046E+0
4.938830E+0
4.936527E+0
4.938336E+0
4.937185E+0
4.938172E+0
4.938501E+0
4.913660E+0
4.910041E+0
4.903955E+0
4.910864E+0
4.907738E+0
4.908561E+0
4.906916E+0
4.909877E+0
4.907245E+0
4.908561E+0
4.914812E+0
4.900335E+0
4.911851E+0
4.905929E+0
4.908232E+0
4.907738E+0
4.907245E+0
4.908232E+0
4.906093E+0
4.916950E+0
4.899184E+0
4.910370E+0
4.907080E+0
4.908396E+0
4.908725E+0
4.934059E+0
4.938172E+0
4.932907E+0
4.947877E+0
4.932085E+0
4.939817E+0
4.940639E+0
4.937349E+0
4.938172E+0
4.939817E+0
4.936856E+0
4.930769E+0
4.949358E+0
4.931262E+0
4.939488E+0
4.938172E+0
4.936033E+0
4.938994E+0
4.936198E+0
4.937843E+0
4.932743E+0
4.945574E+0
4.933072E+0
4.936362E+0
4.938336E+0
4.935375E+0
4.940146E+0
4.936527E+0
4.939323E+0
4.932578E+0
4.943107E+0
4.939981E+0
4.932578E+0
4.943436E+0
4.936691E+0
4.938336E+0
4.939159E+0
4.937678E+0
4.937349E+0
4.940310E+0
4.942613E+0
4.930604E+0
4.939981E+0
4.936691E+0
4.936856E+0
4.936198E+0
4.937185E+0
4.937349E+0
4.938501E+0
4.944587E+0
4.928630E+0
4.941297E+0
4.935704E+0
4.937349E+0
4.938665E+0
4.937020E+0
4.938501E+0
4.934552E+0
4.947384E+0
4.929782E+0
4.940475E+0
4.938830E+0
4.936856E+0
4.938994E+0
4.936527E+0
4.938172E+0
4.931591E+0
4.945903E+0
4.932414E+0
4.938830E+0
4.937843E+0
4.936033E+0
4.938665E+0
4.936033E+0
4.937020E+0
4.931098E+0
4.945739E+0
4.930769E+0
4.936198E+0
4.936856E+0
4.934717E+0
4.937514E+0
4.934552E+0
4.937678E+0
4.930111E+0
4.944752E+0
4.933236E+0
4.933072E+0
4.938007E+0
4.934059E+0
4.938172E+0
4.935375E+0
4.937020E+0
4.933236E+0
4.941133E+0
4.936527E+0
4.933730E+0
4.939488E+0
4.935704E+0
4.937678E+0
4.937020E+0
4.936198E+0
4.935046E+0
4.940146E+0
4.939981E+0
4.930111E+0
4.940639E+0
4.934059E+0
4.935869E+0
4.936033E+0
4.935046E+0
4.936198E+0
4.936527E+0
4.942613E+0
4.927479E+0
4.938830E+0
4.933565E+0
4.935046E+0
4.935869E+0
4.934388E+0
4.936198E+0
4.935375E+0
4.943600E+0
4.926821E+0
4.939488E+0
4.933236E+0
4.934552E+0
4.937514E+0
4.933894E+0
4.935869E+0
4.935046E+0
4.942613E+0
4.928137E+0
4.937843E+0
4.933236E+0
4.935704E+0
4.934552E+0
4.934717E+0
4.935869E+0
