Voltage (V)	dt is 0.010000 seconds	distance is 0.000000 cm
4.786498E+0
4.787321E+0
4.775476E+0
4.786498E+0
4.781398E+0
4.784524E+0
4.782715E+0
4.776628E+0
4.792749E+0
4.781398E+0
4.779753E+0
4.786169E+0
4.780411E+0
4.783866E+0
4.781398E+0
4.778273E+0
4.794394E+0
4.773996E+0
4.783702E+0
4.783537E+0
4.781398E+0
4.785182E+0
4.776957E+0
4.791598E+0
4.783702E+0
4.777121E+0
4.786827E+0
4.780247E+0
4.783208E+0
4.777944E+0
4.790775E+0
4.784524E+0
4.776792E+0
4.786498E+0
4.780740E+0
4.783702E+0
4.783537E+0
4.783373E+0
4.791104E+0
4.777121E+0
4.787321E+0
4.783537E+0
4.784031E+0
4.784524E+0
4.776299E+0
4.795546E+0
4.775641E+0
4.784031E+0
4.784689E+0
4.782385E+0
4.786169E+0
4.775476E+0
4.794230E+0
4.783866E+0
4.778273E+0
4.787979E+0
4.780576E+0
4.784853E+0
4.781727E+0
4.785511E+0
4.790775E+0
4.776792E+0
4.788637E+0
4.783537E+0
4.785182E+0
4.785347E+0
4.782550E+0
4.794065E+0
4.776134E+0
4.787156E+0
4.784195E+0
4.783537E+0
4.784853E+0
4.778766E+0
4.795710E+0
4.775476E+0
4.783702E+0
4.785347E+0
4.780905E+0
4.781727E+0
4.787979E+0
4.921557E+0
4.931427E+0
4.941955E+0
4.938172E+0
4.939981E+0
4.933072E+0
4.950180E+0
4.930604E+0
4.938336E+0
4.939323E+0
4.937185E+0
4.935375E+0
4.943600E+0
4.941955E+0
4.931920E+0
4.941133E+0
4.937514E+0
4.938665E+0
4.933072E+0
4.947548E+0
4.938336E+0
4.935046E+0
4.940968E+0
4.937678E+0
4.938665E+0
4.936033E+0
4.940804E+0
4.944752E+0
4.932085E+0
4.941791E+0
4.938501E+0
4.939817E+0
4.938830E+0
4.935046E+0
4.949687E+0
4.929124E+0
4.939981E+0
4.938172E+0
4.936856E+0
4.939323E+0
4.932249E+0
4.950016E+0
4.931427E+0
4.938007E+0
4.939159E+0
4.938336E+0
4.938501E+0
4.938994E+0
4.946726E+0
4.930933E+0
4.943600E+0
4.937678E+0
4.940146E+0
4.933730E+0
4.945245E+0
4.940146E+0
4.933236E+0
4.940475E+0
4.936856E+0
4.939323E+0
4.929946E+0
4.950180E+0
4.935704E+0
4.938501E+0
4.940804E+0
4.937843E+0
4.935540E+0
4.943765E+0
4.942120E+0
4.931756E+0
4.941462E+0
4.936691E+0
4.934059E+0
4.945574E+0
4.941133E+0
4.931262E+0
4.942942E+0
4.936691E+0
4.933236E+0
4.947219E+0
4.939652E+0
4.932085E+0
4.942449E+0
4.935704E+0
4.932249E+0
4.949851E+0
4.934552E+0
4.938172E+0
4.941955E+0
4.937020E+0
4.938336E+0
4.949358E+0
4.928959E+0
4.940639E+0
4.939488E+0
4.933072E+0
4.943765E+0
4.943929E+0
4.931262E+0
4.943765E+0
4.938007E+0
4.932907E+0
4.947055E+0
4.939652E+0
4.932578E+0
4.941297E+0
4.936362E+0
4.933236E+0
4.948864E+0
4.937349E+0
4.935046E+0
4.942284E+0
4.936691E+0
4.931591E+0
4.950180E+0
4.933565E+0
4.937349E+0
4.941462E+0
4.938007E+0
4.936362E+0
4.948864E+0
4.930111E+0
4.939817E+0
4.938665E+0
4.936362E+0
4.937843E+0
4.948206E+0
4.930604E+0
4.939323E+0
4.938501E+0
4.937020E+0
4.932578E+0
4.949358E+0
4.933236E+0
4.938501E+0
4.941133E+0
4.938336E+0
4.936856E+0
4.941791E+0
4.944258E+0
4.931756E+0
4.942449E+0
4.939488E+0
4.939817E+0
4.788472E+0
4.790117E+0
4.776628E+0
4.777944E+0
4.782385E+0
4.779918E+0
4.781398E+0
4.773996E+0
4.792749E+0
4.772351E+0
4.781398E+0
4.780740E+0
4.779260E+0
4.780576E+0
4.782550E+0
4.788143E+0
4.774654E+0
4.785676E+0
4.780905E+0
4.780740E+0
4.783537E+0
4.786992E+0
4.775970E+0
4.786169E+0
4.779753E+0
4.777450E+0
4.790117E+0
4.782221E+0
4.777121E+0
4.784360E+0
4.779918E+0
4.777450E+0
4.792091E+0
4.775641E+0
4.782715E+0
4.784031E+0
4.781563E+0
4.783537E+0
4.789624E+0
4.775641E+0
4.786992E+0
4.782056E+0
4.778108E+0
4.788472E+0
4.786334E+0
4.776628E+0
4.786827E+0
4.781892E+0
4.778602E+0
4.789459E+0
4.785347E+0
4.776134E+0
4.786169E+0
4.781069E+0
4.777121E+0
4.793243E+0
4.781727E+0
4.779589E+0
4.786663E+0
4.779918E+0
4.779095E+0
4.791598E+0
4.784195E+0
4.776957E+0
4.785347E+0
4.781727E+0
4.782385E+0
4.785018E+0
4.789953E+0
4.776463E+0
4.787814E+0
4.784689E+0
4.783044E+0
4.779424E+0
4.791104E+0
4.784689E+0
4.777944E+0
4.786992E+0
4.781234E+0
4.784031E+0
4.781563E+0
4.786498E+0
4.789459E+0
4.777121E+0
4.787485E+0
4.784360E+0
4.784031E+0
4.784524E+0
4.782221E+0
4.793736E+0
4.775970E+0
4.786498E+0
4.782879E+0
4.782550E+0
4.784689E+0
4.782879E+0
4.791927E+0
4.777450E+0
4.786498E+0
4.784195E+0
4.784360E+0
4.781234E+0
4.788472E+0
4.789459E+0
4.775641E+0
4.789953E+0
4.781892E+0
4.785018E+0
4.780247E+0
4.787814E+0
4.788472E+0
4.775476E+0
4.928137E+0
4.935869E+0
4.938830E+0
4.933236E+0
4.946397E+0
4.938665E+0
4.933401E+0
4.940804E+0
4.937349E+0
4.937514E+0
4.930769E+0
4.950016E+0
4.933072E+0
4.937514E+0
4.941626E+0
4.937843E+0
4.939323E+0
4.934223E+0
4.949851E+0
4.930111E+0
4.938336E+0
4.938665E+0
4.936856E+0
4.938830E+0
4.930933E+0
4.951003E+0
4.930933E+0
4.937185E+0
4.941297E+0
4.936527E+0
4.940146E+0
4.930275E+0
4.949029E+0
4.934882E+0
4.936362E+0
4.941297E+0
4.937843E+0
4.938830E+0
4.931591E+0
4.949358E+0
4.932414E+0
4.937678E+0
4.939981E+0
4.937843E+0
4.939159E+0
4.931920E+0
4.949029E+0
4.936198E+0
4.936198E+0
4.942284E+0
4.938007E+0
4.938665E+0
4.933072E+0
4.947055E+0
4.938172E+0
4.935211E+0
4.940639E+0
4.936527E+0
4.938994E+0
4.931920E+0
4.947877E+0
4.938501E+0
4.932907E+0
4.941791E+0
4.935704E+0
4.938501E+0
4.931920E+0
4.949851E+0
4.930769E+0
4.937678E+0
4.940639E+0
4.936362E+0
4.934388E+0
4.946890E+0
4.938665E+0
4.933565E+0
4.940146E+0
4.936856E+0
4.938501E+0
4.929617E+0
4.950509E+0
4.933401E+0
4.937020E+0
4.941462E+0
4.938007E+0
4.939817E+0
4.930769E+0
4.949687E+0
4.933236E+0
4.938172E+0
4.940475E+0
4.937678E+0
4.940310E+0
4.929782E+0
4.951003E+0
4.934882E+0
4.936856E+0
4.941955E+0
4.938336E+0
4.938665E+0
4.934059E+0
4.945739E+0
4.939981E+0
4.932249E+0
4.939981E+0
4.936691E+0
4.938172E+0
4.937843E+0
4.930769E+0
4.950016E+0
4.931098E+0
4.938665E+0
4.940639E+0
4.936527E+0
4.939817E+0
4.932578E+0
4.947055E+0
4.938830E+0
4.934552E+0
4.940310E+0
4.936691E+0
4.938994E+0
4.931756E+0
4.948042E+0
4.938172E+0
4.933236E+0
4.941626E+0
4.935211E+0
4.938994E+0
4.935211E+0
4.942120E+0
4.943107E+0
4.931756E+0
4.942284E+0
4.937514E+0
4.939159E+0
4.937185E+0
4.940310E+0
4.944094E+0
4.932249E+0
4.942449E+0
4.937678E+0
4.939652E+0
4.933401E+0
4.796697E+0
4.780905E+0
4.774489E+0
4.780740E+0
4.777779E+0
4.780247E+0
4.772351E+0
4.790446E+0
4.776299E+0
4.779424E+0
4.783373E+0
4.780576E+0
4.780082E+0
4.783373E+0
4.786992E+0
4.774654E+0
4.784689E+0
4.781727E+0
4.780740E+0
4.780247E+0
4.789953E+0
4.774160E+0
4.780905E+0
4.781892E+0
4.780082E+0
4.782715E+0
4.788308E+0
4.775476E+0
4.783044E+0
4.781892E+0
4.781234E+0
4.785347E+0
4.787156E+0
4.777121E+0
4.784524E+0
4.782385E+0
4.782385E+0
4.785840E+0
4.786992E+0
4.778108E+0
4.785347E+0
4.782056E+0
4.783537E+0
4.783702E+0
4.789459E+0
4.777121E+0
4.783537E+0
4.781563E+0
4.782550E+0
4.779260E+0
4.788308E+0
4.784195E+0
4.779424E+0
4.783208E+0
4.782715E+0
4.783537E+0
4.783044E+0
4.778766E+0
4.791104E+0
4.780247E+0
4.783702E+0
4.784524E+0
4.783537E+0
4.783702E+0
4.784031E+0
4.782221E+0
4.788966E+0
4.777615E+0
4.783044E+0
4.782879E+0
4.782715E+0
4.783373E+0
4.780576E+0
4.788308E+0
4.779589E+0
4.783866E+0
4.783702E+0
4.783537E+0
4.781892E+0
4.788801E+0
4.782715E+0
4.783866E+0
4.784360E+0
4.784195E+0
4.784360E+0
4.784524E+0
4.783208E+0
4.784689E+0
4.781398E+0
4.783702E+0
4.783373E+0
4.783866E+0
4.783866E+0
4.784360E+0
4.784360E+0
4.786827E+0
4.784031E+0
4.782715E+0
4.783537E+0
4.784031E+0
4.783866E+0
4.783866E+0
4.784195E+0
4.784195E+0
4.781892E+0
4.785511E+0
4.783866E+0
4.784853E+0
4.784360E+0
4.785018E+0
4.784524E+0
4.785018E+0
4.927643E+0
4.942942E+0
4.938501E+0
4.938665E+0
4.939817E+0
4.939817E+0
4.939652E+0
4.939488E+0
4.939817E+0
4.940804E+0
4.938665E+0
4.936691E+0
4.938830E+0
4.938336E+0
4.938665E+0
4.938665E+0
4.939159E+0
4.938665E+0
4.941955E+0
4.939323E+0
4.937349E+0
4.938501E+0
4.938665E+0
4.938501E+0
4.938501E+0
4.938830E+0
4.938830E+0
4.937020E+0
4.939652E+0
4.938501E+0
4.939981E+0
4.939652E+0
4.939981E+0
4.940146E+0
4.939817E+0
4.939323E+0
4.939817E+0
4.939817E+0
4.938830E+0
4.937349E+0
4.938501E+0
4.938007E+0
4.939159E+0
4.938994E+0
4.939323E+0
4.938830E+0
4.939323E+0
4.936362E+0
4.941626E+0
4.939323E+0
4.939159E+0
4.938994E+0
4.938830E+0
4.938501E+0
4.939159E+0
4.938501E+0
4.938665E+0
4.938336E+0
4.943765E+0
4.939323E+0
4.938994E+0
4.939981E+0
4.939817E+0
4.939817E+0
4.940310E+0
4.939817E+0
4.939652E+0
4.936362E+0
4.940804E+0
4.939652E+0
4.940310E+0
4.939981E+0
4.939652E+0
4.939159E+0
4.939981E+0
4.939159E+0
4.937020E+0
4.940146E+0
4.937843E+0
4.939652E+0
4.939817E+0
4.939817E+0
4.940146E+0
4.939323E+0
4.940639E+0
4.939159E+0
4.937020E+0
4.938665E+0
4.939159E+0
4.939159E+0
4.938994E+0
4.939159E+0
4.936527E+0
4.941462E+0
4.939323E+0
4.939488E+0
4.938994E+0
4.938994E+0
4.939488E+0
4.939652E+0
4.938665E+0
4.935869E+0
4.941791E+0
4.939488E+0
4.939159E+0
4.938830E+0
4.938994E+0
4.938830E+0
4.938501E+0
4.939323E+0
4.937185E+0
4.939488E+0
4.938336E+0
4.939817E+0
4.939652E+0
4.939817E+0
4.939817E+0
4.940146E+0
4.939488E+0
4.936362E+0
4.941133E+0
4.939159E+0
4.940146E+0
4.939817E+0
4.939488E+0
4.939488E+0
4.939159E+0
4.939817E+0
4.935211E+0
4.943107E+0
4.939488E+0
4.937843E+0
4.938994E+0
4.938994E+0
4.938830E+0
4.938501E+0
4.939159E+0
4.937514E+0
4.938994E+0
4.937185E+0
4.939323E+0
4.939323E+0
4.939323E+0
4.930604E+0
4.787814E+0
4.780411E+0
4.776628E+0
4.783044E+0
4.780905E+0
4.781563E+0
4.781234E+0
4.781234E+0
4.781234E+0
4.780740E+0
4.781892E+0
4.781234E+0
4.777779E+0
4.785182E+0
4.782385E+0
4.781892E+0
4.781563E+0
4.781892E+0
4.781892E+0
4.781234E+0
4.781892E+0
4.782056E+0
4.778766E+0
4.785182E+0
4.782715E+0
4.782879E+0
4.782221E+0
4.782385E+0
4.782221E+0
4.782221E+0
4.782385E+0
4.782550E+0
4.779260E+0
4.786169E+0
4.782550E+0
4.784195E+0
4.783702E+0
4.783866E+0
4.784360E+0
4.784195E+0
4.784031E+0
4.784195E+0
4.781234E+0
4.789295E+0
4.785182E+0
4.780740E+0
4.783866E+0
4.783702E+0
4.784689E+0
4.784689E+0
4.784031E+0
4.784195E+0
4.780082E+0
4.791269E+0
4.783537E+0
4.781563E+0
4.785182E+0
4.783208E+0
4.784195E+0
4.784360E+0
4.783702E+0
4.784524E+0
4.785347E+0
4.790282E+0
4.779260E+0
4.785676E+0
4.784524E+0
4.783866E+0
4.784360E+0
4.784360E+0
4.779095E+0
4.792585E+0
4.783208E+0
4.782715E+0
4.786498E+0
4.783373E+0
4.785347E+0
4.784031E+0
4.783866E+0
4.778931E+0
4.794888E+0
4.778273E+0
4.785347E+0
4.785511E+0
4.784195E+0
4.786663E+0
4.783702E+0
4.786169E+0
4.785182E+0
4.779095E+0
4.793901E+0
4.784031E+0
4.782550E+0
4.787650E+0
4.784195E+0
4.785840E+0
4.784360E+0
4.785347E+0
4.784853E+0
4.784360E+0
4.779260E+0
4.793901E+0
4.782879E+0
4.783702E+0
4.788966E+0
4.783537E+0
4.786992E+0
4.784689E+0
4.785182E+0
4.785511E+0
4.784853E+0
4.806239E+0
4.940639E+0
4.938665E+0
4.937020E+0
4.943600E+0
4.938830E+0
4.940146E+0
4.940475E+0
4.939981E+0
4.939652E+0
4.939981E+0
4.934223E+0
4.947713E+0
4.940146E+0
4.936527E+0
4.943765E+0
4.937843E+0
4.940804E+0
4.939981E+0
4.938994E+0
4.939981E+0
4.940475E+0
4.933565E+0
4.948206E+0
4.940475E+0
4.936198E+0
4.943271E+0
4.938665E+0
4.940804E+0
4.939817E+0
4.939323E+0
4.939488E+0
4.940146E+0
4.932907E+0
4.950838E+0
4.932907E+0
4.938994E+0
4.942120E+0
4.938501E+0
4.941955E+0
4.939817E+0
4.940146E+0
4.941297E+0
4.933730E+0
4.950016E+0
4.933401E+0
4.938830E+0
4.940639E+0
4.938665E+0
4.940804E+0
4.939488E+0
4.939817E+0
4.935704E+0
4.946232E+0
4.941462E+0
4.934059E+0
4.941791E+0
4.938172E+0
4.939652E+0
4.939159E+0
4.940310E+0
4.933401E+0
4.948700E+0
4.940475E+0
4.935211E+0
4.943929E+0
4.938172E+0
4.939652E+0
4.940475E+0
4.938994E+0
4.940146E+0
4.936033E+0
4.949687E+0
4.932907E+0
4.939652E+0
4.940146E+0
4.938336E+0
4.941133E+0
4.938501E+0
4.939981E+0
4.939981E+0
4.937514E+0
4.949522E+0
4.932907E+0
4.941955E+0
4.939323E+0
4.938830E+0
4.939817E+0
4.938994E+0
4.939817E+0
4.939981E+0
4.934882E+0
4.949522E+0
4.932414E+0
4.939981E+0
4.940146E+0
4.938830E+0
4.941133E+0
4.939159E+0
4.940310E+0
4.932907E+0
4.951167E+0
4.934059E+0
4.939652E+0
4.942449E+0
4.938501E+0
4.941462E+0
4.939981E+0
4.936198E+0
4.945410E+0
4.941955E+0
4.933401E+0
4.942778E+0
4.937349E+0
4.940804E+0
4.939817E+0
4.939323E+0
4.934882E+0
4.948042E+0
4.939817E+0
4.936691E+0
4.943107E+0
4.938665E+0
4.939981E+0
4.940146E+0
4.939817E+0
4.933072E+0
4.950838E+0
4.935046E+0
4.939488E+0
4.942942E+0
4.937843E+0
4.942613E+0
4.939817E+0
4.939817E+0
4.936033E+0
4.950180E+0
4.931756E+0
4.940310E+0
4.940310E+0
4.938172E+0
4.940968E+0
4.939652E+0
4.940475E+0
4.891781E+0
4.785840E+0
4.790117E+0
4.774489E+0
4.785511E+0
4.782879E+0
4.782550E+0
4.784031E+0
4.782385E+0
4.783866E+0
4.783208E+0
4.779918E+0
4.786992E+0
4.787979E+0
4.776134E+0
4.787156E+0
4.782056E+0
4.784031E+0
4.785182E+0
4.783208E+0
4.785347E+0
4.784524E+0
4.776957E+0
4.795381E+0
4.778602E+0
4.783702E+0
4.786827E+0
4.783702E+0
4.785840E+0
4.784524E+0
4.786005E+0
4.777615E+0
4.794394E+0
4.784524E+0
4.782056E+0
4.788143E+0
4.784031E+0
4.786169E+0
4.784524E+0
4.784689E+0
4.783537E+0
4.793901E+0
4.776792E+0
4.788472E+0
4.784195E+0
4.783702E+0
4.786169E+0
4.783044E+0
4.785840E+0
4.784524E+0
4.784853E+0
4.793407E+0
4.778437E+0
4.789624E+0
4.784524E+0
4.786169E+0
4.785840E+0
4.784524E+0
4.786992E+0
4.783866E+0
4.785511E+0
4.780905E+0
4.794888E+0
4.778602E+0
4.785840E+0
4.786169E+0
4.782879E+0
4.786663E+0
4.785840E+0
4.784360E+0
4.786663E+0
4.786005E+0
4.778766E+0
4.795875E+0
4.782550E+0
4.784360E+0
4.789624E+0
4.785182E+0
4.787485E+0
4.786663E+0
4.786827E+0
4.786005E+0
4.787156E+0
4.781563E+0
4.792420E+0
4.788308E+0
4.780740E+0
4.789295E+0
4.783702E+0
4.787156E+0
4.785018E+0
4.785676E+0
4.786169E+0
4.785840E+0
4.779753E+0
4.795875E+0
4.785018E+0
4.782715E+0
4.791269E+0
4.784524E+0
4.786992E+0
4.786498E+0
4.785840E+0
4.786663E+0
4.785676E+0
4.788143E+0
4.792585E+0
4.779424E+0
4.790611E+0
4.785511E+0
4.787321E+0
4.787156E+0
4.849997E+0
4.936691E+0
4.936856E+0
4.942778E+0
4.945574E+0
4.932414E+0
4.943436E+0
4.939488E+0
4.940804E+0
4.941133E+0
4.939323E+0
4.938501E+0
4.942778E+0
4.945410E+0
4.933236E+0
4.943929E+0
4.939817E+0
4.939652E+0
4.941955E+0
4.939817E+0
4.939817E+0
4.941297E+0
4.947055E+0
4.933565E+0
4.943600E+0
4.940146E+0
4.940475E+0
4.940310E+0
4.939817E+0
4.940310E+0
4.935046E+0
4.946561E+0
4.941462E+0
4.933401E+0
4.942942E+0
4.937185E+0
4.940639E+0
4.938336E+0
4.939817E+0
4.938665E+0
4.940310E+0
4.946726E+0
4.932414E+0
4.944587E+0
4.939323E+0
4.940310E+0
4.940968E+0
4.939323E+0
4.933565E+0
4.949358E+0
4.936691E+0
4.938172E+0
4.943271E+0
4.937349E+0
4.941626E+0
4.938830E+0
4.939652E+0
4.933894E+0
4.948042E+0
4.937349E+0
4.937514E+0
4.942778E+0
4.938501E+0
4.941133E+0
4.939488E+0
4.939159E+0
4.940146E+0
4.932907E+0
4.949029E+0
4.935375E+0
4.938172E+0
4.943271E+0
4.938007E+0
4.940968E+0
4.939817E+0
4.939652E+0
4.940146E+0
4.934717E+0
4.945903E+0
4.941955E+0
4.932249E+0
4.942449E+0
4.937185E+0
4.938172E+0
4.939488E+0
4.939652E+0
4.938336E+0
4.940475E+0
4.932085E+0
4.949687E+0
4.934059E+0
4.938007E+0
4.942449E+0
4.937514E+0
4.940968E+0
4.939981E+0
4.939159E+0
4.939488E+0
4.940146E+0
4.937349E+0
4.947877E+0
4.933236E+0
4.941462E+0
4.939159E+0
4.939159E+0
4.939817E+0
4.938665E+0
4.938665E+0
4.936198E+0
4.943107E+0
4.943765E+0
4.932414E+0
4.942942E+0
4.938665E+0
4.939981E+0
4.940475E+0
4.939981E+0
4.938501E+0
4.948206E+0
4.932743E+0
4.942284E+0
4.939323E+0
4.938994E+0
4.939981E+0
4.933565E+0
4.949851E+0
4.932907E+0
4.938501E+0
4.940639E+0
4.938336E+0
4.940804E+0
4.938830E+0
4.947548E+0
4.933072E+0
4.942613E+0
4.939981E+0
4.938994E+0
4.940968E+0
4.933072E+0
4.949851E+0
4.938501E+0
4.937349E+0
4.943436E+0
4.938830E+0
4.856906E+0
4.783373E+0
4.779753E+0
4.777286E+0
4.785840E+0
4.784195E+0
4.774983E+0
4.784195E+0
4.780082E+0
4.781563E+0
4.783044E+0
4.780740E+0
4.782550E+0
4.783537E+0
4.781398E+0
4.790775E+0
4.775641E+0
4.787321E+0
4.782550E+0
4.782550E+0
4.785347E+0
4.782056E+0
4.782879E+0
4.783702E+0
4.782385E+0
4.791433E+0
4.776299E+0
4.786827E+0
4.782221E+0
4.783208E+0
4.784524E+0
4.782056E+0
4.780905E+0
4.787321E+0
4.787156E+0
4.777286E+0
4.786498E+0
4.783208E+0
4.784524E+0
4.784195E+0
4.784195E+0
4.781234E+0
4.794065E+0
4.776463E+0
4.784689E+0
4.784853E+0
4.782221E+0
4.784689E+0
4.782879E+0
4.784689E+0
4.777944E+0
4.792420E+0
4.784195E+0
4.780082E+0
4.787814E+0
4.782715E+0
4.785018E+0
4.783373E+0
4.784031E+0
4.784853E+0
4.778108E+0
4.791433E+0
4.786663E+0
4.776134E+0
4.788308E+0
4.781727E+0
4.783866E+0
4.783702E+0
4.783866E+0
4.784360E+0
4.776792E+0
4.795052E+0
4.778273E+0
4.784031E+0
4.787321E+0
4.781892E+0
4.786663E+0
4.784360E+0
4.781727E+0
4.786992E+0
4.790446E+0
4.777286E+0
4.788472E+0
4.784524E+0
4.784360E+0
4.785347E+0
4.779589E+0
4.790282E+0
4.785840E+0
4.777944E+0
4.787650E+0
4.781398E+0
4.784689E+0
4.784360E+0
4.783702E+0
4.780247E+0
4.794888E+0
4.776463E+0
4.784031E+0
4.785347E+0
4.782221E+0
4.785182E+0
4.783044E+0
4.784360E+0
4.780905E+0
4.788801E+0
4.788308E+0
4.776792E+0
4.787814E+0
4.781727E+0
4.785018E+0
4.784689E+0
4.877963E+0
4.936691E+0
4.933565E+0
4.945574E+0
4.940639E+0
4.934059E+0
4.941462E+0
4.936527E+0
4.940146E+0
4.938501E+0
4.938994E+0
4.938501E+0
4.938501E+0
4.941133E+0
4.944916E+0
4.932249E+0
4.943271E+0
4.938501E+0
4.940310E+0
4.939323E+0
4.939817E+0
4.939817E+0
4.934059E+0
4.946890E+0
4.940146E+0
4.933894E+0
4.941791E+0
4.937185E+0
4.938665E+0
4.938994E+0
4.934717E+0
4.945081E+0
4.941955E+0
4.931098E+0
4.943271E+0
4.936527E+0
4.939159E+0
4.936856E+0
4.941462E+0
4.944094E+0
4.932907E+0
4.941955E+0
4.938501E+0
4.939981E+0
4.933401E+0
4.948206E+0
4.938172E+0
4.935704E+0
4.943107E+0
4.936856E+0
4.940968E+0
4.936033E+0
4.949522E+0
4.932249E+0
4.938501E+0
4.940146E+0
4.936856E+0
4.936198E+0
4.945081E+0
4.941626E+0
4.932907E+0
4.941955E+0
4.937678E+0
4.940146E+0
4.934223E+0
4.946726E+0
4.940968E+0
4.933236E+0
4.941955E+0
4.937349E+0
4.938830E+0
4.933894E+0
4.947713E+0
4.939981E+0
4.934388E+0
4.942778E+0
4.937514E+0
4.939159E+0
4.934717E+0
4.947219E+0
4.939817E+0
4.934552E+0
4.941955E+0
4.937514E+0
4.938994E+0
4.935211E+0
4.946397E+0
4.940639E+0
4.933730E+0
4.941955E+0
4.937349E+0
4.938665E+0
4.934717E+0
4.947384E+0
4.938994E+0
4.934717E+0
4.942449E+0
4.936033E+0
4.939981E+0
4.931920E+0
4.950016E+0
4.936033E+0
4.938007E+0
4.942613E+0
4.938830E+0
4.939817E+0
4.938994E+0
4.947713E+0
4.931591E+0
4.942284E+0
4.938994E+0
4.938336E+0
4.938501E+0
4.938665E+0
4.948042E+0
4.931591E+0
4.941791E+0
4.939981E+0
4.936691E+0
4.941133E+0
4.932085E+0
4.949522E+0
4.937349E+0
4.937349E+0
4.943271E+0
4.937678E+0
4.940639E+0
4.936527E+0
4.942120E+0
4.944423E+0
4.932085E+0
4.943271E+0
4.939159E+0
4.939159E+0
4.940639E+0
4.932907E+0
4.948206E+0
4.938994E+0
4.936691E+0
4.942284E+0
